#Wavelength Transmission
5497.6 0.0012500000
5498.3 0.0013100000
5499.0 0.0012200000
5499.7 0.0013200000
5500.4 0.0013700000
5501.2 0.0013300000
5501.9 0.0012800000
5502.6 0.0012400000
5503.3 0.0012200000
5504.0 0.0012400000
5504.7 0.0012700000
5505.4 0.0012500000
5506.1 0.0011300000
5506.9 0.0012800000
5507.6 0.0012300000
5508.3 0.0013200000
5509.0 0.0012500000
5509.7 0.0011800000
5510.4 0.0010900000
5511.1 0.0012200000
5511.8 0.0012500000
5512.5 0.0012200000
5513.3 0.0012600000
5514.0 0.0012600000
5514.7 0.0013700000
5515.4 0.0013900000
5516.1 0.0013700000
5516.8 0.0012800000
5517.5 0.0012200000
5518.2 0.0012400000
5518.9 0.0013400000
5519.6 0.0013200000
5520.4 0.0014100000
5521.1 0.0013300000
5521.8 0.0013600000
5522.5 0.0013800000
5523.2 0.0014000000
5523.9 0.0012600000
5524.6 0.0013700000
5525.3 0.0014200000
5526.0 0.0014400000
5526.7 0.0013400000
5527.5 0.0014300000
5528.2 0.0013800000
5528.9 0.0012900000
5529.6 0.0014900000
5530.3 0.0015400000
5531.0 0.0013800000
5531.7 0.0015900000
5532.4 0.0013900000
5533.1 0.0015100000
5533.8 0.0015100000
5534.5 0.0015900000
5535.3 0.0013600000
5536.0 0.0014200000
5536.7 0.0016100000
5537.4 0.0016000000
5538.1 0.0016300000
5538.8 0.0013800000
5539.5 0.0014200000
5540.2 0.0016500000
5540.9 0.0016600000
5541.6 0.0016200000
5542.3 0.0016700000
5543.0 0.0017400000
5543.8 0.0016600000
5544.5 0.0017100000
5545.2 0.0016900000
5545.9 0.0017600000
5546.6 0.0017200000
5547.3 0.0017000000
5548.0 0.0018000000
5548.7 0.0018300000
5549.4 0.0018000000
5550.1 0.0018200000
5550.8 0.0018600000
5551.5 0.0018800000
5552.2 0.0018700000
5552.9 0.0019300000
5553.7 0.0020800000
5554.4 0.0018600000
5555.1 0.0019900000
5555.8 0.0019600000
5556.5 0.0021600000
5557.2 0.0019900000
5557.9 0.0020500000
5558.6 0.0021800000
5559.3 0.0022100000
5560.0 0.0021600000
5560.7 0.0023100000
5561.4 0.0022000000
5562.1 0.0022800000
5562.8 0.0023300000
5563.5 0.0023400000
5564.2 0.0024100000
5565.0 0.0024600000
5565.7 0.0024500000
5566.4 0.0027300000
5567.1 0.0027400000
5567.8 0.0026300000
5568.5 0.0026800000
5569.2 0.0027200000
5569.9 0.0028100000
5570.6 0.0030200000
5571.3 0.0031200000
5572.0 0.0030600000
5572.7 0.0030700000
5573.4 0.0031600000
5574.1 0.0031400000
5574.8 0.0032600000
5575.5 0.0033400000
5576.2 0.0035500000
5576.9 0.0034700000
5577.6 0.0037000000
5578.3 0.0037600000
5579.0 0.0037600000
5579.7 0.0039500000
5580.4 0.0039400000
5581.2 0.0040500000
5581.9 0.0042500000
5582.6 0.0043800000
5583.3 0.0044200000
5584.0 0.0044600000
5584.7 0.0046400000
5585.4 0.0049800000
5586.1 0.0049900000
5586.8 0.0049300000
5587.5 0.0052600000
5588.2 0.0055100000
5588.9 0.0056400000
5589.6 0.0058600000
5590.3 0.0060500000
5591.0 0.0062100000
5591.7 0.0063700000
5592.4 0.0065300000
5593.1 0.0067600000
5593.8 0.0069900000
5594.5 0.0073400000
5595.2 0.0077600000
5595.9 0.0079400000
5596.6 0.0081900000
5597.3 0.0083500000
5598.0 0.0085000000
5598.7 0.0089100000
5599.4 0.0094600000
5600.1 0.0096200000
5600.8 0.0098700000
5601.5 0.0103400000
5602.2 0.0106800000
5602.9 0.0112800000
5603.6 0.0119200000
5604.3 0.0120500000
5605.0 0.0123800000
5605.7 0.0131600000
5606.4 0.0141600000
5607.1 0.0143100000
5607.8 0.0151800000
5608.5 0.0153000000
5609.2 0.0165700000
5609.9 0.0167000000
5610.6 0.0180000000
5611.3 0.0183000000
5612.0 0.0188800000
5612.7 0.0203000000
5613.4 0.0211100000
5614.1 0.0219300000
5614.8 0.0237700000
5615.5 0.0241300000
5616.2 0.0253900000
5616.9 0.0269900000
5617.6 0.0276900000
5618.3 0.0288900000
5619.0 0.0305100000
5619.7 0.0323900000
5620.4 0.0338900000
5621.1 0.0355500000
5621.8 0.0362000000
5622.5 0.0384500000
5623.2 0.0408400000
5623.9 0.0432700000
5624.6 0.0459200000
5625.3 0.0480400000
5626.0 0.0511300000
5626.7 0.0535500000
5627.4 0.0556800000
5628.1 0.0590600000
5628.8 0.0619400000
5629.5 0.0653600000
5630.2 0.0695900000
5630.9 0.0730100000
5631.6 0.0769900000
5632.3 0.0811500000
5633.0 0.0859700000
5633.7 0.0905400000
5634.4 0.0967800000
5635.1 0.1013400000
5635.8 0.1069500000
5636.5 0.1134100000
5637.1 0.1207400000
5637.8 0.1279900000
5638.5 0.1353300000
5639.2 0.1420400000
5639.9 0.1496500000
5640.6 0.1600100000
5641.3 0.1692600000
5642.0 0.1786200000
5642.7 0.1887700000
5643.4 0.2001100000
5644.1 0.2124800000
5644.8 0.2243700000
5645.5 0.2366800000
5646.2 0.2504700000
5646.9 0.2647800000
5647.6 0.2788700000
5648.3 0.2932800000
5649.0 0.3102500000
5649.7 0.3264300000
5650.4 0.3443800000
5651.1 0.3636500000
5651.8 0.3808400000
5652.4 0.4001000000
5653.1 0.4177300000
5653.8 0.4361300000
5654.5 0.4591900000
5655.2 0.4783000000
5655.9 0.4991600000
5656.6 0.5183400000
5657.3 0.5383800000
5658.0 0.5595700000
5658.7 0.5796300000
5659.4 0.5989300000
5660.1 0.6170200000
5660.8 0.6354900000
5661.5 0.6538500000
5662.2 0.6702400000
5662.9 0.6901200000
5663.5 0.7045300000
5664.2 0.7198300000
5664.9 0.7358300000
5665.6 0.7476500000
5666.3 0.7602700000
5667.0 0.7709300000
5667.7 0.7798700000
5668.4 0.7902100000
5669.1 0.8005000000
5669.8 0.8049600000
5670.5 0.8129400000
5671.2 0.8188600000
5671.8 0.8226200000
5672.5 0.8286900000
5673.2 0.8335300000
5673.9 0.8339800000
5674.6 0.8383600000
5675.3 0.8406400000
5676.0 0.8413000000
5676.7 0.8400700000
5677.4 0.8439300000
5678.1 0.8419400000
5678.8 0.8444500000
5679.5 0.8440300000
5680.1 0.8421500000
5680.8 0.8442000000
5681.5 0.8438700000
5682.2 0.8394500000
5682.9 0.8409100000
5683.6 0.8391700000
5684.3 0.8371900000
5685.0 0.8355200000
5685.7 0.8384100000
5686.4 0.8370900000
5687.0 0.8342900000
5687.7 0.8314700000
5688.4 0.8344400000
5689.1 0.8274400000
5689.8 0.8334700000
5690.5 0.8317800000
5691.2 0.8271200000
5691.9 0.8299100000
5692.6 0.8292400000
5693.2 0.8296800000
5693.9 0.8273600000
5694.6 0.8290300000
5695.3 0.8307600000
5696.0 0.8304100000
5696.7 0.8270700000
5697.4 0.8312400000
5698.1 0.8301100000
5698.7 0.8300500000
5699.4 0.8309200000
5700.1 0.8330300000
5700.8 0.8328400000
5701.5 0.8359300000
5702.2 0.8380300000
5702.9 0.8385500000
5703.6 0.8360500000
5704.2 0.8397500000
5704.9 0.8419100000
5705.6 0.8453800000
5706.3 0.8465100000
5707.0 0.8412900000
5707.7 0.8476600000
5708.4 0.8508100000
5709.1 0.8486200000
5709.7 0.8526400000
5710.4 0.8582300000
5711.1 0.8532100000
5711.8 0.8595200000
5712.5 0.8630500000
5713.2 0.8649900000
5713.9 0.8679900000
5714.5 0.8669700000
5715.2 0.8727600000
5715.9 0.8764300000
5716.6 0.8778900000
5717.3 0.8804900000
5718.0 0.8818400000
5718.7 0.8824000000
5719.3 0.8884900000
5720.0 0.8884100000
5720.7 0.8888200000
5721.4 0.8923900000
5722.1 0.8971900000
5722.8 0.8996300000
5723.4 0.9003500000
5724.1 0.9042600000
5724.8 0.9031600000
5725.5 0.9074500000
5726.2 0.9052500000
5726.9 0.9097700000
5727.5 0.9151600000
5728.2 0.9145600000
5728.9 0.9186000000
5729.6 0.9183900000
5730.3 0.9208100000
5731.0 0.9250200000
5731.6 0.9227700000
5732.3 0.9237500000
5733.0 0.9293000000
5733.7 0.9284100000
5734.4 0.9251100000
5735.1 0.9297300000
5735.7 0.9318000000
5736.4 0.9328500000
5737.1 0.9370300000
5737.8 0.9387000000
5738.5 0.9385500000
5739.1 0.9407600000
5739.8 0.9415100000
5740.5 0.9414300000
5741.2 0.9439300000
5741.9 0.9449200000
5742.6 0.9443600000
5743.2 0.9474600000
5743.9 0.9434700000
5744.6 0.9477500000
5745.3 0.9493600000
5746.0 0.9494200000
5746.6 0.9520100000
5747.3 0.9531900000
5748.0 0.9528200000
5748.7 0.9548300000
5749.4 0.9550600000
5750.0 0.9516100000
5750.7 0.9540800000
5751.4 0.9554200000
5752.1 0.9525400000
5752.8 0.9544800000
5753.4 0.9530100000
5754.1 0.9525500000
5754.8 0.9563800000
5755.5 0.9548900000
5756.2 0.9577200000
5756.8 0.9579400000
5757.5 0.9581200000
5758.2 0.9544800000
5758.9 0.9532100000
5759.5 0.9552400000
5760.2 0.9550900000
5760.9 0.9526000000
5761.6 0.9524600000
5762.3 0.9556600000
5762.9 0.9499800000
5763.6 0.9597000000
5764.3 0.9523700000
5765.0 0.9558200000
5765.6 0.9556200000
5766.3 0.9528800000
5767.0 0.9526700000
5767.7 0.9487600000
5768.4 0.9486000000
5769.0 0.9530700000
5769.7 0.9523300000
5770.4 0.9502700000
5771.1 0.9511200000
5771.7 0.9499500000
5772.4 0.9521200000
5773.1 0.9549800000
5773.8 0.9501100000
5774.4 0.9481000000
5775.1 0.9452300000
5775.8 0.9481400000
5776.5 0.9471900000
5777.1 0.9484800000
5777.8 0.9454900000
5778.5 0.9494900000
5779.2 0.9529500000
5779.8 0.9423700000
5780.5 0.9470600000
5781.2 0.9445000000
5781.9 0.9442900000
5782.5 0.9469300000
5783.2 0.9430500000
5783.9 0.9426600000
5784.6 0.9456000000
5785.2 0.9459200000
5785.9 0.9436200000
5786.6 0.9404000000
5787.3 0.9415100000
5787.9 0.9430200000
5788.6 0.9410800000
5789.3 0.9426700000
5790.0 0.9398200000
5790.6 0.9406400000
5791.3 0.9407800000
5792.0 0.9403200000
5792.6 0.9384000000
5793.3 0.9412000000
5794.0 0.9418700000
5794.7 0.9411500000
5795.3 0.9402300000
5796.0 0.9370400000
5796.7 0.9411500000
5797.3 0.9379900000
5798.0 0.9375900000
5798.7 0.9372200000
5799.4 0.9369400000
5800.0 0.9363600000
5800.7 0.9376100000
5801.4 0.9341900000
5802.0 0.9390000000
5802.7 0.9393200000
5803.4 0.9358600000
5804.1 0.9357000000
5804.7 0.9388200000
5805.4 0.9389200000
5806.1 0.9380800000
5806.7 0.9372300000
5807.4 0.9365100000
5808.1 0.9377600000
5808.8 0.9364300000
5809.4 0.9332800000
5810.1 0.9361800000
5810.8 0.9395300000
5811.4 0.9421600000
5812.1 0.9340000000
5812.8 0.9374700000
5813.4 0.9357900000
5814.1 0.9355000000
5814.8 0.9347400000
5815.4 0.9337700000
5816.1 0.9355300000
5816.8 0.9341700000
5817.5 0.9338500000
5818.1 0.9357300000
5818.8 0.9328900000
5819.5 0.9326500000
5820.1 0.9359900000
5820.8 0.9318300000
5821.5 0.9323600000
5822.1 0.9361600000
5822.8 0.9348600000
5823.5 0.9329400000
5824.1 0.9363700000
5824.8 0.9337400000
5825.5 0.9325700000
5826.1 0.9295300000
5826.8 0.9331700000
5827.5 0.9338800000
5828.1 0.9328000000
5828.8 0.9336600000
5829.5 0.9317000000
5830.1 0.9370300000
5830.8 0.9300700000
5831.5 0.9355900000
5832.1 0.9358700000
5832.8 0.9356400000
5833.5 0.9332200000
5834.1 0.9347100000
5834.8 0.9336400000
5835.5 0.9346000000
5836.1 0.9325000000
5836.8 0.9309100000
5837.4 0.9330800000
5838.1 0.9326500000
5838.8 0.9315000000
5839.4 0.9304200000
5840.1 0.9319200000
5840.8 0.9327200000
5841.4 0.9306900000
5842.1 0.9313100000
5842.8 0.9338100000
5843.4 0.9321500000
5844.1 0.9302600000
5844.8 0.9317900000
5845.4 0.9300000000
5846.1 0.9330600000
5846.7 0.9276700000
5847.4 0.9319500000
5848.1 0.9290000000
5848.7 0.9290000000
5849.4 0.9290000000
5850.1 0.9304100000
5850.7 0.9300800000
5851.4 0.9297500000
5852.0 0.9308600000
5852.7 0.9284800000
5853.4 0.9290600000
5854.0 0.9289200000
5854.7 0.9303000000
5855.3 0.9278900000
5856.0 0.9293900000
5856.7 0.9319300000
5857.3 0.9274500000
5858.0 0.9292800000
5858.7 0.9254500000
5859.3 0.9283800000
5860.0 0.9274300000
5860.6 0.9300800000
5861.3 0.9306500000
5862.0 0.9274600000
5862.6 0.9279500000
5863.3 0.9293900000
5863.9 0.9296000000
5864.6 0.9290700000
5865.3 0.9276200000
5865.9 0.9313600000
5866.6 0.9281300000
5867.2 0.9299200000
5867.9 0.9275400000
5868.6 0.9342200000
5869.2 0.9303200000
5869.9 0.9301900000
5870.5 0.9276500000
5871.2 0.9260400000
5871.8 0.9292900000
5872.5 0.9291000000
5873.2 0.9269600000
5873.8 0.9305800000
5874.5 0.9320900000
5875.1 0.9279900000
5875.8 0.9285000000
5876.4 0.9296600000
5877.1 0.9325500000
5877.8 0.9312800000
5878.4 0.9287700000
5879.1 0.9305900000
5879.7 0.9309100000
5880.4 0.9291200000
5881.0 0.9327500000
5881.7 0.9326900000
5882.4 0.9328100000
5883.0 0.9351300000
5883.7 0.9322000000
5884.3 0.9341700000
5885.0 0.9329200000
5885.6 0.9357800000
5886.3 0.9358200000
5886.9 0.9358300000
5887.6 0.9345600000
5888.3 0.9351600000
5888.9 0.9377100000
5889.6 0.9375200000
5890.2 0.9374800000
5890.9 0.9342100000
5891.5 0.9380500000
5892.2 0.9375400000
5892.8 0.9404900000
5893.5 0.9383400000
5894.1 0.9393100000
5894.8 0.9418200000
5895.5 0.9418200000
5896.1 0.9426000000
5896.8 0.9443100000
5897.4 0.9431600000
5898.1 0.9426100000
5898.7 0.9454900000
5899.4 0.9465200000
5900.0 0.9481300000
5900.7 0.9474400000
5901.3 0.9478900000
5902.0 0.9479200000
5902.6 0.9521200000
5903.3 0.9480000000
5903.9 0.9505100000
5904.6 0.9441300000
5905.2 0.9492000000
5905.9 0.9473000000
5906.5 0.9468300000
5907.2 0.9496600000
5907.8 0.9525000000
5908.5 0.9540900000
5909.1 0.9518200000
5909.8 0.9518100000
5910.4 0.9528500000
5911.1 0.9551600000
5911.7 0.9537700000
5912.4 0.9557300000
5913.0 0.9541300000
5913.7 0.9534300000
5914.3 0.9543800000
5915.0 0.9553900000
5915.6 0.9543700000
5916.3 0.9589900000
5916.9 0.9593800000
5917.6 0.9547300000
5918.2 0.9586900000
5918.9 0.9575300000
5919.5 0.9605800000
5920.2 0.9569700000
5920.8 0.9586800000
5921.5 0.9601600000
5922.1 0.9582900000
5922.8 0.9608400000
5923.4 0.9619100000
5924.1 0.9603300000
5924.7 0.9616000000
5925.4 0.9626700000
5926.0 0.9605300000
5926.7 0.9608900000
5927.3 0.9620000000
5928.0 0.9623200000
5928.6 0.9621900000
5929.2 0.9647100000
5929.9 0.9605900000
5930.5 0.9636200000
5931.2 0.9640300000
5931.8 0.9618100000
5932.5 0.9605700000
5933.1 0.9634100000
5933.8 0.9619100000
5934.4 0.9660100000
5935.1 0.9644300000
5935.7 0.9609400000
5936.4 0.9658400000
5937.0 0.9638900000
5937.6 0.9664100000
5938.3 0.9658200000
5938.9 0.9658100000
5939.6 0.9655200000
5940.2 0.9621000000
5940.9 0.9653900000
5941.5 0.9648900000
5942.1 0.9644700000
5942.8 0.9678900000
5943.4 0.9631400000
5944.1 0.9607300000
5944.7 0.9667700000
5945.4 0.9638600000
5946.0 0.9657900000
5946.7 0.9629500000
5947.3 0.9623500000
5947.9 0.9630900000
5948.6 0.9656900000
5949.2 0.9623800000
5949.9 0.9656800000
5950.5 0.9649800000
5951.1 0.9655200000
5951.8 0.9640200000
5952.4 0.9651400000
5953.1 0.9660200000
5953.7 0.9646000000
5954.4 0.9673100000
5955.0 0.9607200000
5955.6 0.9636500000
5956.3 0.9632500000
5956.9 0.9649200000
5957.6 0.9624700000
5958.2 0.9621200000
5958.8 0.9625900000
5959.5 0.9630200000
5960.1 0.9612700000
5960.8 0.9633800000
5961.4 0.9598400000
5962.0 0.9636600000
5962.7 0.9625500000
5963.3 0.9625600000
5964.0 0.9636700000
5964.6 0.9614700000
5965.2 0.9593700000
5965.9 0.9633000000
5966.5 0.9636100000
5967.1 0.9628800000
5967.8 0.9610600000
5968.4 0.9604400000
5969.1 0.9630900000
5969.7 0.9616900000
5970.3 0.9628500000
5971.0 0.9627800000
5971.6 0.9622200000
5972.2 0.9586800000
5972.9 0.9650800000
5973.5 0.9628000000
5974.2 0.9630500000
5974.8 0.9588500000
5975.4 0.9622200000
5976.1 0.9614000000
5976.7 0.9624500000
5977.3 0.9618500000
5978.0 0.9598000000
5978.6 0.9580600000
5979.2 0.9630900000
5979.9 0.9597500000
5980.5 0.9576600000
5981.1 0.9595800000
5981.8 0.9608200000
5982.4 0.9605000000
5983.1 0.9585900000
5983.7 0.9601800000
5984.3 0.9572400000
5985.0 0.9601200000
5985.6 0.9633600000
5986.2 0.9602400000
5986.9 0.9596200000
5987.5 0.9600900000
5988.1 0.9583900000
5988.8 0.9604200000
5989.4 0.9611300000
5990.0 0.9592200000
5990.7 0.9639900000
5991.3 0.9607900000
5991.9 0.9618700000
5992.6 0.9586900000
5993.2 0.9616200000
5993.8 0.9591500000
5994.5 0.9630900000
5995.1 0.9603000000
5995.7 0.9583100000
5996.3 0.9627500000
5997.0 0.9586300000
5997.6 0.9616400000
5998.2 0.9601200000
5998.9 0.9653600000
5999.5 0.9594200000
6000.1 0.9617000000
6000.8 0.9598200000
6001.4 0.9592300000
6002.0 0.9623200000
6002.7 0.9613500000
6003.3 0.9628900000
6003.9 0.9587200000
6004.5 0.9613100000
6005.2 0.9622000000
6005.8 0.9617500000
6006.4 0.9589700000
6007.1 0.9627200000
6007.7 0.9582500000
6008.3 0.9631500000
6008.9 0.9614600000
6009.6 0.9636100000
6010.2 0.9603100000
6010.8 0.9631800000
6011.5 0.9568100000
6012.1 0.9605300000
6012.7 0.9598300000
6013.3 0.9617600000
6014.0 0.9628500000
6014.6 0.9608400000
6015.2 0.9660700000
6015.8 0.9600900000
6016.5 0.9616900000
6017.1 0.9630000000
6017.7 0.9594800000
6018.4 0.9614000000
6019.0 0.9631500000
6019.6 0.9620000000
6020.2 0.9616300000
6020.9 0.9618600000
6021.5 0.9629400000
6022.1 0.9591200000
6022.7 0.9579600000
6023.4 0.9604900000
6024.0 0.9620500000
6024.6 0.9605700000
6025.2 0.9585700000
6025.9 0.9599300000
6026.5 0.9559800000
6027.1 0.9602000000
6027.7 0.9569000000
6028.4 0.9603000000
6029.0 0.9570900000
6029.6 0.9571900000
6030.2 0.9568000000
6030.8 0.9611200000
6031.5 0.9555400000
6032.1 0.9556900000
6032.7 0.9579200000
6033.3 0.9536300000
6034.0 0.9555700000
6034.6 0.9592600000
6035.2 0.9565300000
6035.8 0.9566100000
6036.5 0.9544000000
6037.1 0.9565300000
6037.7 0.9560200000
6038.3 0.9546700000
6038.9 0.9558700000
6039.6 0.9570600000
6040.2 0.9565000000
6040.8 0.9516400000
6041.4 0.9543800000
6042.0 0.9497200000
6042.7 0.9518700000
6043.3 0.9526700000
6043.9 0.9547800000
6044.5 0.9519400000
6045.1 0.9515600000
6045.8 0.9461300000
6046.4 0.9461700000
6047.0 0.9504300000
6047.6 0.9498200000
6048.2 0.9473000000
6048.9 0.9480000000
6049.5 0.9448700000
6050.1 0.9460700000
6050.7 0.9471000000
6051.3 0.9451100000
6051.9 0.9446100000
6052.6 0.9465900000
6053.2 0.9426000000
6053.8 0.9452600000
6054.4 0.9432000000
6055.0 0.9428600000
6055.7 0.9431800000
6056.3 0.9435400000
6056.9 0.9420000000
6057.5 0.9396700000
6058.1 0.9389600000
6058.7 0.9406800000
6059.4 0.9416800000
6060.0 0.9394800000
6060.6 0.9365900000
6061.2 0.9383400000
6061.8 0.9397200000
6062.4 0.9399700000
6063.0 0.9337000000
6063.7 0.9384100000
6064.3 0.9337400000
6064.9 0.9348000000
6065.5 0.9366300000
6066.1 0.9320400000
6066.7 0.9320700000
6067.3 0.9376900000
6068.0 0.9293700000
6068.6 0.9344700000
6069.2 0.9326100000
6069.8 0.9341400000
6070.4 0.9310500000
6071.0 0.9319600000
6071.6 0.9295000000
6072.3 0.9314400000
6072.9 0.9307800000
6073.5 0.9304600000
6074.1 0.9312800000
6074.7 0.9296900000
6075.3 0.9339200000
6075.9 0.9290400000
6076.5 0.9305800000
6077.1 0.9270900000
6077.8 0.9279500000
6078.4 0.9247800000
6079.0 0.9263400000
6079.6 0.9314200000
6080.2 0.9230300000
6080.8 0.9277300000
6081.4 0.9267300000
6082.0 0.9255200000
6082.6 0.9271700000
6083.3 0.9266900000
6083.9 0.9281400000
6084.5 0.9258500000
6085.1 0.9244800000
6085.7 0.9273600000
6086.3 0.9277000000
6086.9 0.9256500000
6087.5 0.9223200000
6088.1 0.9273700000
6088.7 0.9252800000
6089.3 0.9262400000
6090.0 0.9248600000
6090.6 0.9265800000
6091.2 0.9274100000
6091.8 0.9273000000
6092.4 0.9249100000
6093.0 0.9247900000
6093.6 0.9266800000
6094.2 0.9238000000
6094.8 0.9243700000
6095.4 0.9260700000
6096.0 0.9218600000
6096.6 0.9267100000
6097.2 0.9248300000
6097.8 0.9233500000
6098.5 0.9260900000
6099.1 0.9232600000
6099.7 0.9280600000
6100.3 0.9242900000
6100.9 0.9272500000
6101.5 0.9242800000
6102.1 0.9251500000
6102.7 0.9268700000
6103.3 0.9273200000
6103.9 0.9255600000
6104.5 0.9260900000
6105.1 0.9295500000
6105.7 0.9270300000
6106.3 0.9300100000
6106.9 0.9273900000
6107.5 0.9286500000
6108.1 0.9287500000
6108.7 0.9281100000
6109.3 0.9284400000
6109.9 0.9336300000
6110.5 0.9287600000
6111.1 0.9308600000
6111.7 0.9292000000
6112.3 0.9320800000
6112.9 0.9333200000
6113.5 0.9312500000
6114.1 0.9307000000
6114.7 0.9341800000
6115.3 0.9343600000
6115.9 0.9288200000
6116.6 0.9335100000
6117.2 0.9333600000
6117.8 0.9328500000
6118.4 0.9360600000
6119.0 0.9374500000
6119.6 0.9370200000
6120.2 0.9377800000
6120.8 0.9339100000
6121.4 0.9336900000
6122.0 0.9363900000
6122.6 0.9349100000
6123.1 0.9348200000
6123.7 0.9353000000
6124.3 0.9397300000
6124.9 0.9392800000
6125.5 0.9394700000
6126.1 0.9412000000
6126.7 0.9398100000
6127.3 0.9430000000
6127.9 0.9443700000
6128.6 0.9432600000
6129.3 0.9465300000
6129.9 0.9431900000
6130.6 0.9475700000
6131.2 0.9461000000
6131.9 0.9465900000
6132.6 0.9495300000
6133.2 0.9476700000
6133.9 0.9494600000
6134.5 0.9481000000
6135.2 0.9483900000
6135.8 0.9507600000
6136.5 0.9507100000
6137.1 0.9487900000
6137.8 0.9522600000
6138.5 0.9528800000
6139.1 0.9506800000
6139.8 0.9518700000
6140.4 0.9556500000
6141.1 0.9523200000
6141.7 0.9544400000
6142.4 0.9543000000
6143.1 0.9547900000
6143.7 0.9501100000
6144.4 0.9503700000
6145.0 0.9538400000
6145.7 0.9571800000
6146.3 0.9547700000
6147.0 0.9538200000
6147.6 0.9550400000
6148.3 0.9581400000
6149.0 0.9544700000
6149.6 0.9574000000
6150.3 0.9589700000
6150.9 0.9541000000
6151.6 0.9546000000
6152.2 0.9567500000
6152.9 0.9608100000
6153.5 0.9576400000
6154.2 0.9549800000
6154.8 0.9579400000
6155.5 0.9576100000
6156.2 0.9611300000
6156.8 0.9618800000
6157.5 0.9583900000
6158.1 0.9611800000
6158.8 0.9611000000
6159.4 0.9609700000
6160.1 0.9600700000
6160.7 0.9593700000
6161.4 0.9614600000
6162.0 0.9596300000
6162.7 0.9624000000
6163.3 0.9606700000
6164.0 0.9633600000
6164.6 0.9627000000
6165.3 0.9579700000
6165.9 0.9605300000
6166.6 0.9586700000
6167.3 0.9618700000
6167.9 0.9627100000
6168.6 0.9635600000
6169.2 0.9616000000
6169.9 0.9631100000
6170.5 0.9623900000
6171.2 0.9631200000
6171.8 0.9623100000
6172.5 0.9604000000
6173.1 0.9628200000
6173.8 0.9618600000
6174.4 0.9631100000
6175.1 0.9623600000
6175.7 0.9617200000
6176.4 0.9648500000
6177.0 0.9649200000
6177.7 0.9629600000
6178.3 0.9620800000
6179.0 0.9598500000
6179.6 0.9646200000
6180.3 0.9634100000
6180.9 0.9631700000
6181.6 0.9640900000
6182.2 0.9625800000
6182.9 0.9636300000
6183.5 0.9575500000
6184.2 0.9630900000
6184.8 0.9608800000
6185.5 0.9601300000
6186.1 0.9614100000
6186.8 0.9599500000
6187.4 0.9641800000
6188.1 0.9615200000
6188.7 0.9599000000
6189.4 0.9639200000
6190.0 0.9585500000
6190.7 0.9612000000
6191.3 0.9630900000
6192.0 0.9618500000
6192.6 0.9590200000
6193.3 0.9573000000
6193.9 0.9588900000
6194.6 0.9566900000
6195.2 0.9586000000
6195.9 0.9595900000
6196.5 0.9610600000
6197.2 0.9574600000
6197.8 0.9560200000
6198.5 0.9593600000
6199.1 0.9601700000
6199.8 0.9593600000
6200.4 0.9589600000
6201.1 0.9575500000
6201.7 0.9588600000
6202.3 0.9541200000
6203.0 0.9575900000
6203.6 0.9575100000
6204.3 0.9585600000
6204.9 0.9592300000
6205.6 0.9564100000
6206.2 0.9550100000
6206.9 0.9560100000
6207.5 0.9546000000
6208.2 0.9522900000
6208.8 0.9529800000
6209.5 0.9522000000
6210.1 0.9567800000
6210.8 0.9578900000
6211.4 0.9557100000
6212.0 0.9504900000
6212.7 0.9570900000
6213.3 0.9508800000
6214.0 0.9515000000
6214.6 0.9517600000
6215.3 0.9539100000
6215.9 0.9503400000
6216.6 0.9507400000
6217.2 0.9477600000
6217.9 0.9469700000
6218.5 0.9489600000
6219.1 0.9490800000
6219.8 0.9496800000
6220.4 0.9534800000
6221.1 0.9478600000
6221.7 0.9425400000
6222.4 0.9485900000
6223.0 0.9398700000
6223.7 0.9459700000
6224.3 0.9453800000
6224.9 0.9438000000
6225.6 0.9449600000
6226.2 0.9429100000
6226.9 0.9444100000
6227.5 0.9460500000
6228.2 0.9410000000
6228.8 0.9424400000
6229.4 0.9396000000
6230.1 0.9393000000
6230.7 0.9399800000
6231.4 0.9356000000
6232.0 0.9398200000
6232.7 0.9334600000
6233.3 0.9353000000
6233.9 0.9359800000
6234.6 0.9385100000
6235.2 0.9378000000
6235.9 0.9385800000
6236.5 0.9356100000
6237.2 0.9352500000
6237.8 0.9329800000
6238.4 0.9317800000
6239.1 0.9284500000
6239.7 0.9325500000
6240.4 0.9267200000
6241.0 0.9286500000
6241.6 0.9341100000
6242.3 0.9328600000
6242.9 0.9320900000
6243.6 0.9260800000
6244.2 0.9295200000
6244.9 0.9274000000
6245.5 0.9252200000
6246.1 0.9268200000
6246.8 0.9235700000
6247.4 0.9268600000
6248.1 0.9247900000
6248.7 0.9235000000
6249.3 0.9221300000
6250.0 0.9211000000
6250.6 0.9208000000
6251.3 0.9188500000
6251.9 0.9212000000
6252.5 0.9240500000
6253.2 0.9221100000
6253.8 0.9185700000
6254.5 0.9162100000
6255.1 0.9147200000
6255.7 0.9164500000
6256.4 0.9142100000
6257.0 0.9147100000
6257.6 0.9148400000
6258.3 0.9148500000
6258.9 0.9120300000
6259.6 0.9117400000
6260.2 0.9122800000
6260.8 0.9128100000
6261.5 0.9136100000
6262.1 0.9103200000
6262.7 0.9093100000
6263.4 0.9120000000
6264.0 0.9074600000
6264.7 0.9090100000
6265.3 0.9081100000
6265.9 0.9035300000
6266.6 0.9053500000
6267.2 0.9060100000
6267.8 0.9037000000
6268.5 0.9050200000
6269.1 0.9040000000
6269.8 0.9007600000
6270.4 0.9058500000
6271.0 0.9015600000
6271.7 0.9084400000
6272.3 0.9068100000
6272.9 0.9034200000
6273.6 0.9008000000
6274.2 0.8984200000
6274.8 0.9017200000
6275.5 0.9033700000
6276.1 0.8999800000
6276.8 0.9018000000
6277.4 0.9027000000
6278.0 0.8989800000
6278.7 0.8985900000
6279.3 0.9006900000
6279.9 0.8987300000
6280.6 0.8943600000
6281.2 0.9006400000
6281.8 0.8997600000
6282.5 0.8967100000
6283.1 0.8969100000
6283.7 0.9003700000
6284.4 0.8951800000
6285.0 0.8972100000
6285.6 0.8990900000
6286.3 0.9002900000
6286.9 0.8970600000
6287.5 0.8983600000
6288.2 0.8974400000
6288.8 0.8961000000
6289.4 0.8943500000
6290.1 0.8983100000
6290.7 0.8943300000
6291.3 0.8963200000
6292.0 0.8957300000
6292.6 0.8977000000
6293.2 0.8959900000
6293.9 0.8984900000
6294.5 0.8960100000
6295.1 0.8945600000
6295.8 0.8963800000
6296.4 0.8961500000
6297.0 0.8982200000
6297.7 0.8973500000
6298.3 0.8969300000
6298.9 0.8970900000
6299.6 0.8970700000
6300.2 0.8975900000
6300.8 0.8971700000
6301.4 0.8967000000
6302.1 0.8959800000
6302.7 0.8969200000
6303.3 0.9003800000
6304.0 0.8996600000
6304.6 0.8967400000
6305.2 0.8987300000
6305.9 0.8984700000
6306.5 0.8958700000
6307.1 0.8989500000
6307.7 0.8995800000
6308.4 0.8993200000
6309.0 0.8982800000
6309.6 0.9022800000
6310.3 0.9013500000
6310.9 0.9016900000
6311.5 0.9037300000
6312.2 0.9051700000
6312.8 0.9006000000
6313.4 0.9025100000
6314.0 0.9023800000
6314.7 0.9023300000
6315.3 0.9013700000
6315.9 0.9035000000
6316.6 0.9039200000
6317.2 0.9078100000
6317.8 0.9043400000
6318.4 0.9030900000
6319.1 0.9080400000
6319.7 0.9079400000
6320.3 0.9061500000
6320.9 0.9042200000
6321.6 0.9078200000
6322.2 0.9071800000
6322.8 0.9084700000
6323.5 0.9093300000
6324.1 0.9092200000
6324.7 0.9087800000
6325.3 0.9070600000
6326.0 0.9107200000
6326.6 0.9102000000
6327.2 0.9108100000
6327.8 0.9097800000
6328.5 0.9125200000
6329.1 0.9148200000
6329.7 0.9137500000
6330.3 0.9126900000
6331.0 0.9153900000
6331.6 0.9167700000
6332.2 0.9189900000
6332.8 0.9189500000
6333.5 0.9187000000
6334.1 0.9202700000
6334.7 0.9167900000
6335.3 0.9211400000
6336.0 0.9186100000
6336.6 0.9209200000
6337.2 0.9203800000
6337.8 0.9213200000
6338.5 0.9218400000
6339.1 0.9237500000
6339.7 0.9238800000
6340.3 0.9278600000
6341.0 0.9199300000
6341.6 0.9267200000
6342.2 0.9249600000
6342.8 0.9282400000
6343.5 0.9235200000
6344.1 0.9251600000
6344.7 0.9256100000
6345.3 0.9256300000
6346.0 0.9260300000
6346.6 0.9264600000
6347.2 0.9275700000
6347.8 0.9299100000
6348.4 0.9333400000
6349.1 0.9339500000
6349.7 0.9314500000
6350.3 0.9326900000
6350.9 0.9308000000
6351.5 0.9323500000
6352.2 0.9493400000
6352.8 0.9315400000
6353.4 0.9335600000
6354.0 0.9350000000
6354.7 0.9349300000
6355.3 0.9359700000
6355.9 0.9318300000
6356.5 0.9343300000
6357.1 0.9323900000
6357.8 0.9339600000
6358.4 0.9368900000
6359.0 0.9348000000
6359.6 0.9396900000
6360.2 0.9336800000
6360.9 0.9398200000
6361.5 0.9408100000
6362.1 0.9402000000
6362.7 0.9382300000
6363.3 0.9399000000
6364.0 0.9400800000
6364.6 0.9411500000
6365.2 0.9397200000
6365.8 0.9367400000
6366.4 0.9433700000
6367.1 0.9424300000
6367.7 0.9411800000
6368.3 0.9443100000
6368.9 0.9413200000
6369.5 0.9449900000
6370.1 0.9423900000
6370.8 0.9449800000
6371.4 0.9466900000
6372.0 0.9445300000
6372.6 0.9444800000
6373.2 0.9461800000
6373.8 0.9475000000
6374.5 0.9435900000
6375.1 0.9433900000
6375.7 0.9453800000
6376.3 0.9426600000
6376.9 0.9464400000
6377.5 0.9462900000
6378.2 0.9470800000
6378.8 0.9466800000
6379.4 0.9447900000
6380.0 0.9491800000
6380.6 0.9471000000
6381.2 0.9458600000
6381.9 0.9444100000
6382.5 0.9466100000
6383.1 0.9474400000
6383.7 0.9472300000
6384.3 0.9488200000
6384.9 0.9493900000
6385.5 0.9444400000
6386.2 0.9474600000
6386.8 0.9460100000
6387.4 0.9466600000
6388.0 0.9488800000
6388.6 0.9484200000
6389.2 0.9462100000
6389.8 0.9491200000
6390.7 0.9498600000
6391.4 0.9503500000
6392.0 0.9467300000
6392.6 0.9445900000
6393.3 0.9469400000
6393.9 0.9513900000
6394.5 0.9507600000
6395.2 0.9445400000
6395.8 0.9492400000
6396.4 0.9498300000
6397.1 0.9489700000
6397.7 0.9488300000
6398.3 0.9463000000
6399.0 0.9498900000
6399.6 0.9506000000
6400.2 0.9488100000
6400.9 0.9503600000
6401.5 0.9450300000
6402.1 0.9496900000
6402.8 0.9513700000
6403.4 0.9458000000
6404.0 0.9450900000
6404.7 0.9487700000
6405.3 0.9435000000
6405.9 0.9482900000
6406.5 0.9462700000
6407.2 0.9453800000
6407.8 0.9494000000
6408.4 0.9454200000
6409.1 0.9461600000
6409.7 0.9442500000
6410.3 0.9468600000
6411.0 0.9470000000
6411.6 0.9473000000
6412.2 0.9492100000
6412.9 0.9502800000
6413.5 0.9485700000
6414.1 0.9475000000
6414.7 0.9490300000
6415.4 0.9455600000
6416.0 0.9454200000
6416.6 0.9471600000
6417.3 0.9457600000
6417.9 0.9472700000
6418.5 0.9451400000
6419.1 0.9469900000
6419.8 0.9476000000
6420.4 0.9474000000
6421.0 0.9461100000
6421.7 0.9473500000
6422.3 0.9489000000
6422.9 0.9486200000
6423.5 0.9472400000
6424.2 0.9520000000
6424.8 0.9452400000
6425.4 0.9486700000
6426.1 0.9448400000
6426.7 0.9481700000
6427.3 0.9442300000
6427.9 0.9505900000
6428.6 0.9491200000
6429.2 0.9470500000
6429.8 0.9491300000
6430.4 0.9472400000
6431.1 0.9476800000
6431.7 0.9476800000
6432.3 0.9499600000
6433.0 0.9468100000
6433.6 0.9453900000
6434.2 0.9504200000
6434.8 0.9488800000
6435.5 0.9474400000
6436.1 0.9503400000
6436.7 0.9474600000
6437.3 0.9505700000
6438.0 0.9503800000
6438.6 0.9474500000
6439.2 0.9491800000
6439.8 0.9514800000
6440.5 0.9539800000
6441.1 0.9496400000
6441.7 0.9509700000
6442.3 0.9488800000
6443.0 0.9482500000
6443.6 0.9492500000
6444.2 0.9514900000
6444.8 0.9484400000
6445.5 0.9485100000
6446.1 0.9522200000
6446.7 0.9489700000
6447.3 0.9501200000
6448.0 0.9493900000
6448.6 0.9530500000
6449.2 0.9504700000
6449.8 0.9532300000
6450.5 0.9488500000
6451.1 0.9523400000
6451.7 0.9544300000
6452.3 0.9492700000
6453.0 0.9556100000
6453.6 0.9478200000
6454.2 0.9518300000
6454.8 0.9520200000
6455.5 0.9528500000
6456.1 0.9546500000
6456.7 0.9526000000
6457.3 0.9543400000
6457.9 0.9546500000
6458.6 0.9565400000
6459.2 0.9520000000
6459.8 0.9534100000
6460.4 0.9526100000
6461.1 0.9523900000
6461.7 0.9551100000
6462.3 0.9538900000
6462.9 0.9572100000
6463.5 0.9565400000
6464.2 0.9545200000
6464.8 0.9554600000
6465.4 0.9534000000
6466.0 0.9544400000
6466.7 0.9570900000
6467.3 0.9548300000
6467.9 0.9537700000
6468.5 0.9553700000
6469.1 0.9568700000
6469.8 0.9553800000
6470.4 0.9564300000
6471.0 0.9584100000
6471.6 0.9564100000
6472.2 0.9567700000
6472.9 0.9551000000
6473.5 0.9565700000
6474.1 0.9568300000
6474.7 0.9555700000
6475.3 0.9562000000
6476.0 0.9546300000
6476.6 0.9538300000
6477.2 0.9624000000
6477.8 0.9602100000
6478.4 0.9610000000
6479.1 0.9578500000
6479.7 0.9615000000
6480.3 0.9605800000
6480.9 0.9636900000
6481.5 0.9586400000
6482.2 0.9570100000
6482.8 0.9586900000
6483.4 0.9596600000
6484.0 0.9594100000
6484.6 0.9607200000
6485.2 0.9593900000
6485.9 0.9634800000
6486.5 0.9620200000
6487.1 0.9614100000
6487.7 0.9608900000
6488.3 0.9592100000
6489.0 0.9582600000
6489.6 0.9616600000
6490.2 0.9647900000
6490.8 0.9622900000
6491.4 0.9609300000
6492.0 0.9631200000
6492.7 0.9630600000
6493.3 0.9622700000
6493.9 0.9624100000
6494.5 0.9601100000
6495.1 0.9644900000
6495.7 0.9627300000
6496.4 0.9610700000
6497.0 0.9585200000
6497.6 0.9627300000
6498.2 0.9618100000
6498.8 0.9634800000
6499.4 0.9617000000
6500.0 0.9631200000
6500.7 0.9641500000
6501.3 0.9592200000
6501.9 0.9597200000
6502.5 0.9646700000
6503.1 0.9665800000
6503.7 0.9629300000
6504.4 0.9648700000
6505.0 0.9650000000
6505.6 0.9662300000
6506.2 0.9638300000
6506.8 0.9653900000
6507.4 0.9610300000
6508.0 0.9642700000
6508.7 0.9615600000
6509.3 0.9626900000
6509.9 0.9602700000
6510.5 0.9657900000
6511.1 0.9631400000
6511.7 0.9641300000
6512.3 0.9659500000
6512.9 0.9614100000
6513.6 0.9626300000
6514.2 0.9650700000
6514.8 0.9640400000
6515.4 0.9634800000
6516.0 0.9622300000
6516.6 0.9653400000
6517.2 0.9682900000
6517.9 0.9629300000
6518.5 0.9620800000
6519.1 0.9628200000
6519.7 0.9642700000
6520.3 0.9654900000
6520.9 0.9630200000
6521.5 0.9611000000
6522.1 0.9655800000
6522.7 0.9626600000
6523.4 0.9606700000
6524.0 0.9615500000
6524.6 0.9635800000
6525.2 0.9649600000
6525.8 0.9655000000
6526.4 0.9619100000
6527.0 0.9671300000
6527.6 0.9618200000
6528.2 0.9637100000
6528.9 0.9610800000
6529.5 0.9637500000
6530.1 0.9642100000
6530.7 0.9671300000
6531.3 0.9641400000
6531.9 0.9620600000
6532.5 0.9622900000
6533.1 0.9667600000
6533.7 0.9640800000
6534.3 0.9603800000
6535.0 0.9629300000
6535.6 0.9602700000
6536.2 0.9649200000
6536.8 0.9630100000
6537.4 0.9654800000
6538.0 0.9661000000
6538.6 0.9668600000
6539.2 0.9662900000
6539.8 0.9595300000
6540.4 0.9632900000
6541.0 0.9658100000
6541.6 0.9664400000
6542.3 0.9620700000
6542.9 0.9649000000
6543.5 0.9640100000
6544.1 0.9657600000
6544.7 0.9662100000
6545.3 0.9665600000
6545.9 0.9653900000
6546.5 0.9594900000
6547.1 0.9657500000
6547.7 0.9649000000
6548.3 0.9660300000
6548.9 0.9674200000
6549.5 0.9650800000
6550.1 0.9676800000
6550.7 0.9645500000
6551.4 0.9643200000
6552.0 0.9639000000
6552.6 0.9628300000
6553.2 0.9652000000
6553.8 0.9661300000
6554.4 0.9671200000
6555.0 0.9645900000
6555.6 0.9593900000
6556.2 0.9655900000
6556.8 0.9634800000
6557.4 0.9655700000
6558.0 0.9660800000
6558.6 0.9637800000
6559.2 0.9665700000
6559.8 0.9626700000
6560.4 0.9647900000
6561.0 0.9640000000
6561.6 0.9639000000
6562.2 0.9639000000
6562.8 0.9669200000
6563.4 0.9656600000
6564.1 0.9646200000
6564.7 0.9637700000
6565.3 0.9628900000
6565.9 0.9625700000
6566.5 0.9646200000
6567.1 0.9633500000
6567.7 0.9655000000
6568.3 0.9607700000
6568.9 0.9655000000
6569.5 0.9642900000
6570.1 0.9676600000
6570.7 0.9669800000
6571.3 0.9670800000
6571.9 0.9649600000
6572.5 0.9686100000
6573.1 0.9665700000
6573.7 0.9681600000
6574.3 0.9666500000
6574.9 0.9655100000
6575.5 0.9635800000
6576.1 0.9685300000
6576.7 0.9667300000
6577.3 0.9650000000
6577.9 0.9633700000
6578.5 0.9657500000
6579.1 0.9646300000
6579.7 0.9681700000
6580.3 0.9658300000
6580.9 0.9648200000
6581.5 0.9676200000
6582.1 0.9650400000
6582.7 0.9687900000
6583.3 0.9642200000
6583.9 0.9669300000
6584.5 0.9670400000
6585.1 0.9648100000
6585.7 0.9662700000
6586.3 0.9657000000
6586.9 0.9670700000
6587.5 0.9676800000
6588.1 0.9663700000
6588.7 0.9680500000
6589.3 0.9663900000
6589.9 0.9666100000
6590.5 0.9677000000
6591.1 0.9682900000
6591.7 0.9678700000
6592.3 0.9656300000
6592.9 0.9640600000
6593.5 0.9653300000
6594.1 0.9659900000
6594.7 0.9659200000
6595.3 0.9614700000
6595.9 0.9639900000
6596.5 0.9656300000
6597.1 0.9680900000
6597.7 0.9697500000
6598.2 0.9641900000
6598.8 0.9667400000
6599.4 0.9645200000
6600.0 0.9655700000
6600.6 0.9687500000
6601.2 0.9639900000
6601.8 0.9660600000
6602.4 0.9654800000
6603.0 0.9699500000
6603.6 0.9646500000
6604.2 0.9655600000
6604.8 0.9675000000
6605.4 0.9669800000
6606.0 0.9652200000
6606.6 0.9668200000
6607.2 0.9648500000
6607.8 0.9641100000
6608.4 0.9653500000
6609.0 0.9657100000
6609.6 0.9677700000
6610.2 0.9608100000
6610.7 0.9654800000
6611.3 0.9674700000
6611.9 0.9633600000
6612.5 0.9647600000
6613.1 0.9654300000
6613.7 0.9667100000
6614.3 0.9631000000
6614.9 0.9649200000
6615.5 0.9631200000
6616.1 0.9650500000
6616.7 0.9654600000
6617.3 0.9668600000
6617.9 0.9642500000
6618.5 0.9656900000
6619.0 0.9651800000
6619.6 0.9647500000
6620.2 0.9623700000
6620.8 0.9665500000
6621.4 0.9624300000
6622.0 0.9625700000
6622.6 0.9639000000
6623.2 0.9636100000
6623.8 0.9639000000
6624.4 0.9626000000
6625.0 0.9623200000
6625.6 0.9654100000
6626.1 0.9662900000
6626.7 0.9661500000
6627.3 0.9680900000
6627.9 0.9656000000
6628.5 0.9671500000
6629.1 0.9650200000
6629.7 0.9645700000
6630.3 0.9646800000
6630.9 0.9652300000
6631.4 0.9644400000
6632.0 0.9636300000
6632.6 0.9632800000
6633.2 0.9643300000
6633.8 0.9613600000
6634.4 0.9659300000
6635.0 0.9647400000
6635.6 0.9630900000
6636.2 0.9646200000
6636.7 0.9632700000
6637.3 0.9644100000
6637.9 0.9622800000
6638.5 0.9631300000
6639.1 0.9607600000
6639.7 0.9636900000
6640.3 0.9629800000
6640.9 0.9654200000
6641.4 0.9641300000
6642.0 0.9634500000
6642.6 0.9619200000
6643.2 0.9596800000
6643.8 0.9640700000
6644.4 0.9647500000
6645.0 0.9661900000
6645.6 0.9627700000
6646.1 0.9648300000
6646.7 0.9604800000
6647.3 0.9619000000
6647.9 0.9666900000
6648.5 0.9619900000
6649.1 0.9632500000
6649.7 0.9626600000
6650.2 0.9615600000
6650.8 0.9643600000
6651.4 0.9635600000
6652.0 0.9595300000
6652.6 0.9595800000
6653.2 0.9620300000
6653.7 0.9621600000
6654.3 0.9646000000
6654.9 0.9619300000
6655.5 0.9625700000
6656.1 0.9665400000
6656.7 0.9604600000
6657.2 0.9655700000
6657.8 0.9602000000
6658.4 0.9625700000
6659.0 0.9626000000
6659.6 0.9640400000
6660.2 0.9617100000
6660.7 0.9630200000
6661.3 0.9609200000
6661.9 0.9633500000
6662.5 0.9620600000
6663.1 0.9634300000
6663.7 0.9603700000
6664.2 0.9613200000
6664.8 0.9603200000
6665.4 0.9588200000
6666.0 0.9633400000
6666.6 0.9590100000
6667.1 0.9668600000
6667.7 0.9628500000
6668.3 0.9614700000
6668.9 0.9604100000
6669.5 0.9597500000
6670.0 0.9637400000
6670.6 0.9630800000
6671.2 0.9662100000
6671.8 0.9627700000
6672.4 0.9630200000
6672.9 0.9637500000
6673.5 0.9650400000
6674.1 0.9607900000
6674.7 0.9624300000
6675.3 0.9624400000
6675.8 0.9634800000
6676.4 0.9618100000
6677.0 0.9634400000
6677.6 0.9640600000
6678.2 0.9586500000
6678.7 0.9599000000
6679.3 0.9632200000
6679.9 0.9638600000
6680.5 0.9645200000
6681.0 0.9612500000
6681.6 0.9668100000
6682.2 0.9617000000
6682.8 0.9618000000
6683.4 0.9637600000
6683.9 0.9593100000
6684.5 0.9629500000
6685.1 0.9599600000
6685.7 0.9633600000
6686.2 0.9624000000
6686.8 0.9636200000
6687.4 0.9629400000
6688.0 0.9620900000
6688.5 0.9622100000
6689.1 0.9624400000
6689.7 0.9608100000
6690.3 0.9667600000
6690.8 0.9619200000
6691.4 0.9668100000
6692.0 0.9615200000
6692.6 0.9607900000
6693.1 0.9682400000
6693.7 0.9627700000
6694.3 0.9619000000
6694.9 0.9605500000
6695.4 0.9605300000
6696.0 0.9652900000
6696.6 0.9634800000
6697.2 0.9661900000
6697.7 0.9629800000
6698.3 0.9615200000
6698.9 0.9649300000
6699.5 0.9630500000
6700.0 0.9624700000
6700.6 0.9645800000
6701.2 0.9648300000
6701.8 0.9663900000
6702.3 0.9615000000
6702.9 0.9635600000
6703.5 0.9617200000
6704.0 0.9655000000
6704.6 0.9636600000
6705.2 0.9659300000
6705.8 0.9661500000
6706.3 0.9641600000
6706.9 0.9669600000
6707.5 0.9623700000
6708.0 0.9613100000
6708.6 0.9648300000
6709.2 0.9658900000
6709.8 0.9650800000
6710.3 0.9640400000
6710.9 0.9661300000
6711.5 0.9629800000
6712.0 0.9640100000
6712.6 0.9618800000
6713.2 0.9622400000
6713.7 0.9646000000
6714.3 0.9630700000
6714.9 0.9662100000
6715.5 0.9664000000
6716.0 0.9608000000
6716.6 0.9662100000
6717.2 0.9619500000
6717.7 0.9655600000
6718.3 0.9653900000
6718.9 0.9599300000
6719.4 0.9646600000
6720.0 0.9635500000
6720.6 0.9642600000
6721.1 0.9632900000
6721.7 0.9632000000
6722.3 0.9627500000
6722.8 0.9630100000
6723.4 0.9627900000
6724.0 0.9641500000
6724.5 0.9626400000
6725.1 0.9633800000
6725.7 0.9595000000
6726.2 0.9623500000
6726.8 0.9645300000
6727.4 0.9611600000
6727.9 0.9617000000
6728.5 0.9635500000
6729.1 0.9664700000
6729.6 0.9634300000
6730.2 0.9655600000
6730.8 0.9633400000
6731.3 0.9593900000
6731.9 0.9618300000
6732.5 0.9613700000
6733.0 0.9646300000
6733.6 0.9604500000
6734.2 0.9618700000
6734.7 0.9616900000
6735.3 0.9606700000
6735.8 0.9596000000
6736.4 0.9592000000
6737.0 0.9586400000
6737.5 0.9629700000
6738.1 0.9593600000
6738.7 0.9619400000
6739.2 0.9602400000
6739.8 0.9591400000
6740.4 0.9589900000
6740.9 0.9627800000
6741.5 0.9604600000
6742.0 0.9587800000
6742.6 0.9609400000
6743.2 0.9577000000
6743.7 0.9618200000
6744.3 0.9636300000
6744.8 0.9650300000
6745.4 0.9602300000
6746.0 0.9566900000
6746.5 0.9611900000
6747.1 0.9593200000
6747.7 0.9595300000
6748.2 0.9611100000
6748.8 0.9588600000
6749.3 0.9609500000
6749.9 0.9575500000
6750.5 0.9604400000
6751.0 0.9592300000
6751.6 0.9591100000
6752.1 0.9597300000
6752.7 0.9586400000
6753.3 0.9554500000
6753.8 0.9577300000
6754.4 0.9604400000
6754.9 0.9578300000
6755.5 0.9599300000
6756.0 0.9554900000
6756.6 0.9591300000
6757.2 0.9584500000
6757.7 0.9574200000
6758.3 0.9558600000
6758.8 0.9575700000
6759.4 0.9605000000
6760.0 0.9561200000
6760.5 0.9607900000
6761.1 0.9548500000
6761.6 0.9571200000
6762.2 0.9589500000
6762.7 0.9581300000
6763.3 0.9574700000
6763.9 0.9613900000
6764.4 0.9550800000
6765.0 0.9597500000
6765.5 0.9526500000
6766.1 0.9560600000
6766.6 0.9571600000
6767.2 0.9542000000
6767.7 0.9579100000
6768.3 0.9564800000
6768.9 0.9551800000
6769.4 0.9538700000
6770.0 0.9567300000
6770.5 0.9558500000
6771.1 0.9567400000
6771.6 0.9557000000
6772.2 0.9547400000
6772.7 0.9562700000
6773.3 0.9572500000
6773.8 0.9560100000
6774.4 0.9574800000
6774.9 0.9550200000
6775.5 0.9557100000
6776.1 0.9538600000
6776.6 0.9576100000
6777.2 0.9532400000
6777.7 0.9534300000
6778.3 0.9532100000
6778.8 0.9541500000
6779.4 0.9539800000
6779.9 0.9522900000
6780.5 0.9553000000
6781.0 0.9516100000
6781.6 0.9555700000
6782.1 0.9602300000
6782.7 0.9535800000
6783.2 0.9556900000
6783.8 0.9517200000
6784.3 0.9556700000
6784.9 0.9530300000
6785.4 0.9520200000
6786.0 0.9515300000
6786.5 0.9562300000
6787.1 0.9539400000
6787.6 0.9565400000
6788.2 0.9527100000
6788.7 0.9528400000
6789.3 0.9535300000
6789.8 0.9532500000
6790.4 0.9519700000
6790.9 0.9544800000
6791.5 0.9546700000
6792.0 0.9554300000
6792.6 0.9541500000
6793.1 0.9532800000
6793.7 0.9526700000
6794.2 0.9530400000
6794.8 0.9527400000
6795.3 0.9500400000
6795.9 0.9499700000
6796.4 0.9541600000
6796.9 0.9556700000
6797.5 0.9520100000
6798.0 0.9517200000
6798.6 0.9526400000
6799.1 0.9549800000
6799.7 0.9528200000
6800.2 0.9530100000
6800.8 0.9525400000
6801.3 0.9537600000
6801.9 0.9518900000
6802.4 0.9534900000
6803.0 0.9572900000
6803.5 0.9525400000
6804.0 0.9523400000
6804.6 0.9563900000
6805.1 0.9524700000
6805.7 0.9533000000
6806.2 0.9515600000
6806.8 0.9552500000
6807.3 0.9509900000
6807.9 0.9515000000
6808.4 0.9537500000
6808.9 0.9551300000
6809.5 0.9510600000
6810.0 0.9514300000
6810.6 0.9539400000
6811.1 0.9568200000
6811.7 0.9498400000
6812.2 0.9556900000
6812.7 0.9556300000
6813.3 0.9546900000
6813.8 0.9581600000
6814.4 0.9528800000
6814.9 0.9545800000
6815.4 0.9503600000
6816.0 0.9544100000
6816.5 0.9539000000
6817.1 0.9522800000
6817.6 0.9560200000
6818.2 0.9536000000
6818.7 0.9532000000
6819.2 0.9566700000
6819.8 0.9549200000
6820.3 0.9543900000
6820.9 0.9548000000
6821.4 0.9536700000
6821.9 0.9542900000
6822.5 0.9535400000
6823.0 0.9553400000
6823.6 0.9529000000
6824.1 0.9565200000
6824.6 0.9530900000
6825.2 0.9546800000
6825.7 0.9543600000
6826.2 0.9548500000
6826.8 0.9593500000
6827.3 0.9554900000
6827.9 0.9524100000
6828.4 0.9548300000
6828.9 0.9536400000
6829.5 0.9554300000
6830.0 0.9570300000
6830.5 0.9560500000
6831.1 0.9569900000
6831.6 0.9559400000
6832.2 0.9544300000
6832.7 0.9547400000
6833.2 0.9547900000
6833.8 0.9571400000
6834.3 0.9577900000
6834.8 0.9533200000
6835.4 0.9556500000
6835.9 0.9560400000
6836.4 0.9562300000
6837.0 0.9560900000
6837.5 0.9564300000
6838.0 0.9565500000
6838.6 0.9578000000
6839.1 0.9595000000
6839.6 0.9565000000
6840.2 0.9536900000
6840.7 0.9572600000
6841.3 0.9547100000
6841.8 0.9611900000
6842.3 0.9578700000
6842.9 0.9622500000
6843.4 0.9602600000
6843.9 0.9570100000
6844.4 0.9569700000
6845.0 0.9579300000
6845.5 0.9600000000
6846.0 0.9600700000
6846.6 0.9592300000
6847.1 0.9579400000
6847.6 0.9575200000
6848.2 0.9614100000
6848.7 0.9595300000
6849.2 0.9607000000
6849.8 0.9579800000
6850.3 0.9631600000
6850.8 0.9593900000
6851.4 0.9583200000
6851.9 0.9561000000
6852.4 0.9579600000
6852.9 0.9601700000
6853.5 0.9591300000
6854.0 0.9633000000
6854.5 0.9644500000
6855.1 0.9618100000
6855.6 0.9587400000
6856.1 0.9623600000
6856.7 0.9602400000
6857.2 0.9591400000
6857.7 0.9579100000
6858.2 0.9593900000
6858.8 0.9605500000
6859.3 0.9593700000
6859.8 0.9581400000
6860.4 0.9608800000
6860.9 0.9624000000
6861.4 0.9622200000
6861.9 0.9586900000
6862.5 0.9662800000
6863.0 0.9590900000
6863.5 0.9609500000
6864.0 0.9587100000
6864.6 0.9631200000
6865.1 0.9630600000
6865.6 0.9617800000
6866.1 0.9646300000
6866.5 0.9600100000
6867.1 0.9624500000
6867.7 0.9596700000
6868.3 0.9622600000
6868.9 0.9633800000
6869.4 0.9629900000
6870.0 0.9603800000
6870.6 0.9611900000
6871.2 0.9596000000
6871.8 0.9599900000
6872.4 0.9616900000
6872.9 0.9621300000
6873.5 0.9612300000
6874.1 0.9632200000
6874.7 0.9633000000
6875.3 0.9644800000
6875.9 0.9608400000
6876.4 0.9643700000
6877.0 0.9631500000
6877.6 0.9631200000
6878.2 0.9606400000
6878.8 0.9635400000
6879.4 0.9675100000
6879.9 0.9644500000
6880.5 0.9587100000
6881.1 0.9620800000
6881.7 0.9643100000
6882.3 0.9610000000
6882.9 0.9658500000
6883.4 0.9656100000
6884.0 0.9605700000
6884.6 0.9632700000
6885.2 0.9631600000
6885.8 0.9651900000
6886.4 0.9640300000
6886.9 0.9641700000
6887.5 0.9645400000
6888.1 0.9631100000
6888.7 0.9621500000
6889.3 0.9647900000
6889.8 0.9635800000
6890.4 0.9663600000
6891.0 0.9656000000
6891.6 0.9625700000
6892.2 0.9615000000
6892.8 0.9643900000
6893.3 0.9652100000
6893.9 0.9664800000
6894.5 0.9613200000
6895.1 0.9635200000
6895.7 0.9684500000
6896.2 0.9614000000
6896.8 0.9655200000
6897.4 0.9634800000
6898.0 0.9650100000
6898.6 0.9648500000
6899.1 0.9662000000
6899.7 0.9640700000
6900.3 0.9646700000
6900.9 0.9693600000
6901.4 0.9667000000
6902.0 0.9645600000
6902.6 0.9645700000
6903.2 0.9708900000
6903.8 0.9630900000
6904.3 0.9663000000
6904.9 0.9644700000
6905.5 0.9667500000
6906.1 0.9639100000
6906.7 0.9638000000
6907.2 0.9672900000
6907.8 0.9676700000
6908.4 0.9671400000
6909.0 0.9693800000
6909.5 0.9643600000
6910.1 0.9663900000
6910.7 0.9669900000
6911.3 0.9683300000
6911.9 0.9671400000
6912.4 0.9668500000
6913.0 0.9675900000
6913.6 0.9655100000
6914.2 0.9661600000
6914.7 0.9671900000
6915.3 0.9671400000
6915.9 0.9642700000
6916.5 0.9669600000
6917.0 0.9655900000
6917.6 0.9611800000
6918.2 0.9684800000
6918.8 0.9663800000
6919.3 0.9675000000
6919.9 0.9662500000
6920.5 0.9705600000
6921.1 0.9692100000
6921.6 0.9692900000
6922.2 0.9672800000
6922.8 0.9669800000
6923.4 0.9727200000
6923.9 0.9658200000
6924.5 0.9671100000
6925.1 0.9683000000
6925.7 0.9675400000
6926.2 0.9701300000
6926.8 0.9665600000
6927.4 0.9661300000
6928.0 0.9662100000
6928.5 0.9639300000
6929.1 0.9663800000
6929.7 0.9661700000
6930.3 0.9663000000
6930.8 0.9669500000
6931.4 0.9686300000
6932.0 0.9689900000
6932.6 0.9670300000
6933.1 0.9673700000
6933.7 0.9640900000
6934.3 0.9687700000
6934.8 0.9647400000
6935.4 0.9692500000
6936.0 0.9708500000
6936.6 0.9683500000
6937.1 0.9664100000
6937.7 0.9669200000
6938.3 0.9683600000
6938.9 0.9674800000
6939.4 0.9628800000
6940.0 0.9696700000
6940.6 0.9681900000
6941.1 0.9673700000
6941.7 0.9648400000
6942.3 0.9673300000
6942.9 0.9690200000
6943.4 0.9641000000
6944.0 0.9646600000
6944.6 0.9667000000
6945.1 0.9626700000
6945.7 0.9651100000
6946.3 0.9656700000
6946.8 0.9656400000
6947.4 0.9671300000
6948.0 0.9659100000
6948.6 0.9660800000
6949.1 0.9672600000
6949.7 0.9707500000
6950.3 0.9662400000
6950.8 0.9673800000
6951.4 0.9682800000
6952.0 0.9674800000
6952.5 0.9677100000
6953.1 0.9641100000
6953.7 0.9670200000
6954.3 0.9670000000
6954.8 0.9658000000
6955.4 0.9638600000
6956.0 0.9619200000
6956.5 0.9658600000
6957.1 0.9693900000
6957.7 0.9703000000
6958.2 0.9664300000
6958.8 0.9679400000
6959.4 0.9694900000
6959.9 0.9652500000
6960.5 0.9649400000
6961.1 0.9661300000
6961.6 0.9665300000
6962.2 0.9667400000
6962.8 0.9645900000
6963.3 0.9640100000
6963.9 0.9668700000
6964.5 0.9664300000
6965.0 0.9704500000
6965.6 0.9669400000
6966.2 0.9677900000
6966.7 0.9648500000
6967.3 0.9688400000
6967.9 0.9669500000
6968.4 0.9688300000
6969.0 0.9630200000
6969.6 0.9673200000
6970.1 0.9638200000
6970.7 0.9638600000
6971.3 0.9674400000
6971.8 0.9658400000
6972.4 0.9663300000
6973.0 0.9668600000
6973.5 0.9707700000
6974.1 0.9623500000
6974.6 0.9672700000
6975.2 0.9668100000
6975.8 0.9653600000
6976.3 0.9648100000
6976.9 0.9653700000
6977.5 0.9610300000
6978.0 0.9647000000
6978.6 0.9651400000
6979.2 0.9649500000
6979.7 0.9645200000
6980.3 0.9685600000
6980.8 0.9664100000
6981.4 0.9664100000
6982.0 0.9652200000
6982.5 0.9665400000
6983.1 0.9662800000
6983.7 0.9657700000
6984.2 0.9644300000
6984.8 0.9655800000
6985.3 0.9631000000
6985.9 0.9644900000
6986.5 0.9641700000
6987.0 0.9672600000
6987.6 0.9659000000
6988.2 0.9662300000
6988.7 0.9659000000
6989.3 0.9676900000
6989.8 0.9670700000
6990.4 0.9653000000
6991.0 0.9659100000
6991.5 0.9672700000
6992.1 0.9664500000
6992.6 0.9665000000
6993.2 0.9664200000
6993.8 0.9646600000
6994.3 0.9666500000
6994.9 0.9623500000
6995.4 0.9669700000
6996.0 0.9647300000
6996.6 0.9661100000
6997.1 0.9626000000
6997.7 0.9678100000
6998.2 0.9634300000
6998.8 0.9633700000
6999.4 0.9663700000
6999.9 0.9680000000
7000.5 0.9648100000
7001.0 0.9665600000
7001.6 0.9631900000
7002.2 0.9634000000
7002.7 0.9629300000
7003.3 0.9660000000
7003.8 0.9680000000
7004.4 0.9632000000
7004.9 0.9650900000
7005.5 0.9662800000
7006.1 0.9683100000
7006.6 0.9619100000
7007.2 0.9659500000
7007.7 0.9617700000
7008.3 0.9624700000
7008.8 0.9620000000
7009.4 0.9639400000
7010.0 0.9665400000
7010.5 0.9616600000
7011.1 0.9642800000
7011.6 0.9669500000
7012.2 0.9616800000
7012.7 0.9651600000
7013.3 0.9651400000
7013.8 0.9632700000
7014.4 0.9632100000
7015.0 0.9619000000
7015.5 0.9638300000
7016.1 0.9588800000
7016.6 0.9642900000
7017.2 0.9604400000
7017.7 0.9642800000
7018.3 0.9636200000
7018.8 0.9632200000
7019.4 0.9648400000
7019.9 0.9631600000
7020.5 0.9642200000
7021.1 0.9643300000
7021.6 0.9626100000
7022.2 0.9632600000
7022.7 0.9615700000
7023.3 0.9618100000
7023.8 0.9630300000
7024.4 0.9657900000
7024.9 0.9634000000
7025.5 0.9654100000
7026.0 0.9661300000
7026.6 0.9602100000
7027.1 0.9656100000
7027.7 0.9619000000
7028.2 0.9634600000
7028.8 0.9625000000
7029.4 0.9659700000
7029.9 0.9619900000
7030.5 0.9654800000
7031.0 0.9618800000
7031.6 0.9624200000
7032.1 0.9632400000
7032.7 0.9650800000
7033.2 0.9610400000
7033.8 0.9634300000
7034.3 0.9626400000
7034.9 0.9651400000
7035.4 0.9601900000
7036.0 0.9660600000
7036.5 0.9629300000
7037.1 0.9631700000
7037.6 0.9649300000
7038.2 0.9598000000
7038.7 0.9648900000
7039.3 0.9602100000
7039.8 0.9658200000
7040.4 0.9630100000
7040.9 0.9625200000
7041.5 0.9631200000
7042.0 0.9630800000
7042.6 0.9643000000
7043.1 0.9625600000
7043.7 0.9644500000
7044.2 0.9627600000
7044.8 0.9622200000
7045.3 0.9632700000
7045.9 0.9662300000
7046.4 0.9626300000
7046.9 0.9648200000
7047.5 0.9660500000
7048.0 0.9643600000
7048.6 0.9632300000
7049.1 0.9608500000
7049.7 0.9608200000
7050.2 0.9648800000
7050.8 0.9614900000
7051.3 0.9658600000
7051.9 0.9632700000
7052.4 0.9619700000
7053.0 0.9646900000
7053.5 0.9615200000
7054.1 0.9655400000
7054.6 0.9622200000
7055.1 0.9667000000
7055.7 0.9629700000
7056.2 0.9662300000
7056.8 0.9647700000
7057.3 0.9660100000
7057.9 0.9621400000
7058.4 0.9633900000
7059.0 0.9645100000
7059.5 0.9645900000
7060.1 0.9661500000
7060.6 0.9671500000
7061.1 0.9658400000
7061.7 0.9642500000
7062.2 0.9664700000
7062.8 0.9664900000
7063.3 0.9656900000
7063.9 0.9638100000
7064.4 0.9671800000
7064.9 0.9637600000
7065.5 0.9606000000
7066.0 0.9699100000
7066.6 0.9674000000
7067.1 0.9642600000
7067.7 0.9665900000
7068.2 0.9648700000
7068.7 0.9677600000
7069.3 0.9651500000
7069.8 0.9661500000
7070.4 0.9652900000
7070.9 0.9653800000
7071.5 0.9634700000
7072.0 0.9642700000
7072.5 0.9638600000
7073.1 0.9679200000
7073.6 0.9629900000
7074.2 0.9711900000
7074.7 0.9658700000
7075.2 0.9661000000
7075.8 0.9665500000
7076.3 0.9650100000
7076.9 0.9629000000
7077.4 0.9673200000
7077.9 0.9664800000
7078.5 0.9663300000
7079.0 0.9649000000
7079.6 0.9691000000
7080.1 0.9661400000
7080.6 0.9644600000
7081.2 0.9658500000
7081.7 0.9627000000
7082.3 0.9660500000
7082.8 0.9651000000
7083.3 0.9660600000
7083.9 0.9669600000
7084.4 0.9627500000
7085.0 0.9649300000
7085.5 0.9669800000
7086.0 0.9677300000
7086.6 0.9631300000
7087.1 0.9626400000
7087.6 0.9661400000
7088.2 0.9660400000
7088.7 0.9635100000
7089.3 0.9676100000
7089.8 0.9613200000
7090.3 0.9617300000
7090.9 0.9592000000
7091.4 0.9596200000
7091.9 0.9622900000
7092.5 0.9606900000
7093.0 0.9594700000
7093.5 0.9568200000
7094.1 0.9614900000
7094.6 0.9580800000
7095.2 0.9579400000
7095.7 0.9588300000
7096.2 0.9582400000
7096.8 0.9567200000
7097.3 0.9543900000
7097.8 0.9574000000
7098.4 0.9601800000
7098.9 0.9564600000
7099.4 0.9544100000
7100.0 0.9546900000
7100.5 0.9571800000
7101.0 0.9514400000
7101.6 0.9559900000
7102.1 0.9499600000
7102.6 0.9509900000
7103.2 0.9531700000
7103.7 0.9525800000
7104.2 0.9506100000
7104.8 0.9470400000
7105.3 0.9469700000
7105.8 0.9434600000
7106.4 0.9486800000
7106.9 0.9458000000
7107.4 0.9426600000
7108.0 0.9418500000
7108.5 0.9415500000
7109.0 0.9422800000
7109.6 0.9367200000
7110.1 0.9396500000
7110.6 0.9389400000
7111.1 0.9373100000
7111.7 0.9358600000
7112.2 0.9361000000
7112.7 0.9365100000
7113.3 0.9325500000
7113.8 0.9333200000
7114.3 0.9310500000
7114.9 0.9303400000
7115.4 0.9265100000
7115.9 0.9281400000
7116.5 0.9237600000
7117.0 0.9258100000
7117.5 0.9236800000
7118.0 0.9224800000
7118.6 0.9225000000
7119.1 0.9213200000
7119.6 0.9188600000
7120.2 0.9184200000
7120.7 0.9129200000
7121.2 0.9157900000
7121.7 0.9124200000
7122.3 0.9106200000
7122.8 0.9065700000
7123.3 0.9087700000
7123.9 0.9096900000
7124.4 0.9049900000
7124.9 0.9036000000
7125.4 0.9058800000
7126.0 0.9035400000
7126.5 0.8997600000
7127.0 0.9009100000
7127.5 0.8992500000
7128.1 0.8982200000
7128.6 0.8965800000
7129.1 0.8933000000
7129.6 0.8932400000
7130.2 0.8930300000
7130.7 0.8906900000
7131.2 0.8868300000
7131.7 0.8848800000
7132.3 0.8873100000
7132.8 0.8838800000
7133.3 0.8825000000
7133.8 0.8807400000
7134.4 0.8742400000
7134.9 0.8771500000
7135.4 0.8765700000
7135.9 0.8725300000
7136.5 0.8719200000
7137.0 0.8698700000
7137.5 0.8685200000
7138.0 0.8655400000
7138.6 0.8671000000
7139.1 0.8649800000
7139.6 0.8627400000
7140.1 0.8631400000
7140.7 0.8605800000
7141.2 0.8572800000
7141.7 0.8569300000
7142.2 0.8552000000
7142.7 0.8540600000
7143.3 0.8563200000
7143.8 0.8495500000
7144.3 0.8517400000
7144.8 0.8480800000
7145.4 0.8442300000
7145.9 0.8431300000
7146.4 0.8440800000
7146.9 0.8436500000
7147.4 0.8377200000
7148.0 0.8360700000
7148.5 0.8384000000
7149.0 0.8338300000
7149.5 0.8335400000
7150.0 0.8314800000
7150.6 0.8324400000
7151.1 0.8295500000
7151.6 0.8262400000
7152.1 0.8253300000
7152.6 0.8244100000
7153.2 0.8211500000
7153.7 0.8211400000
7154.2 0.8185900000
7154.7 0.8165000000
7155.2 0.8177400000
7155.8 0.8152900000
7156.3 0.8129400000
7156.8 0.8159600000
7157.3 0.8125300000
7157.8 0.8080200000
7158.3 0.8090600000
7158.9 0.8047500000
7159.4 0.8054200000
7159.9 0.8078800000
7160.4 0.8053200000
7160.9 0.8047200000
7161.4 0.8030000000
7162.0 0.8033400000
7162.5 0.7987800000
7163.0 0.7954000000
7163.5 0.7944800000
7164.0 0.7954900000
7164.5 0.7946400000
7165.1 0.7924400000
7165.6 0.7897800000
7166.1 0.7910700000
7166.6 0.7898300000
7167.1 0.7849500000
7167.6 0.7889000000
7168.2 0.7856000000
7168.7 0.7822800000
7169.2 0.7806600000
7169.7 0.7799300000
7170.2 0.7780100000
7170.7 0.7766100000
7171.2 0.7772400000
7171.7 0.7779500000
7172.3 0.7755500000
7172.8 0.7750700000
7173.3 0.7745300000
7173.8 0.7686000000
7174.3 0.7664200000
7174.8 0.7671000000
7175.3 0.7648500000
7175.9 0.7603600000
7176.4 0.7634500000
7176.9 0.7613600000
7177.4 0.7587800000
7177.9 0.7574100000
7178.4 0.7542600000
7178.9 0.7554800000
7179.4 0.7526600000
7179.9 0.7528900000
7180.5 0.7497000000
7181.0 0.7453200000
7181.5 0.7460200000
7182.0 0.7445400000
7182.5 0.7412500000
7183.0 0.7397400000
7183.5 0.7396100000
7184.0 0.7357100000
7184.5 0.7300900000
7185.0 0.7354200000
7185.6 0.7287700000
7186.1 0.7260500000
7186.6 0.7233600000
7187.1 0.7218900000
7187.6 0.7185600000
7188.1 0.7158700000
7188.6 0.7142700000
7189.1 0.7111000000
7189.6 0.7088200000
7190.1 0.7048200000
7190.6 0.7040900000
7191.2 0.7001300000
7191.7 0.6958900000
7192.2 0.6937000000
7192.7 0.6918300000
7193.2 0.6873200000
7193.7 0.6838100000
7194.2 0.6768700000
7194.7 0.6738300000
7195.2 0.6705100000
7195.7 0.6662000000
7196.2 0.6638200000
7196.7 0.6592400000
7197.2 0.6555700000
7197.7 0.6506100000
7198.2 0.6453700000
7198.7 0.6416100000
7199.3 0.6366500000
7199.8 0.6363700000
7200.3 0.6294700000
7200.8 0.6227900000
7201.3 0.6167100000
7201.8 0.6138000000
7202.3 0.6070300000
7202.8 0.6004900000
7203.3 0.5985200000
7203.8 0.5914700000
7204.3 0.5872800000
7204.8 0.5786100000
7205.3 0.5755300000
7205.8 0.5708500000
7206.3 0.5642300000
7206.8 0.5583700000
7207.3 0.5512500000
7207.8 0.5452400000
7208.3 0.5400700000
7208.8 0.5350000000
7209.3 0.5270700000
7209.8 0.5215900000
7210.3 0.5147400000
7210.8 0.5082200000
7211.3 0.5004500000
7211.8 0.4953000000
7212.3 0.4887200000
7212.8 0.4834200000
7213.3 0.4758600000
7213.8 0.4710100000
7214.3 0.4634800000
7214.8 0.4564200000
7215.3 0.4526100000
7215.8 0.4428300000
7216.3 0.4362200000
7216.8 0.4293300000
7217.3 0.4226300000
7217.8 0.4172400000
7218.3 0.4112900000
7218.8 0.4026000000
7219.3 0.3969900000
7219.8 0.3893700000
7220.3 0.3859700000
7220.8 0.3763100000
7221.3 0.3710800000
7221.8 0.3669600000
7222.3 0.3594200000
7222.8 0.3514200000
7223.3 0.3483000000
7223.8 0.3423700000
7224.3 0.3360400000
7224.8 0.3282500000
7225.3 0.3220900000
7225.8 0.3164000000
7226.3 0.3126000000
7226.8 0.3062300000
7227.3 0.2989000000
7227.8 0.2942700000
7228.3 0.2883200000
7228.8 0.2828100000
7229.3 0.2776400000
7229.8 0.2727700000
7230.3 0.2670800000
7230.7 0.2608800000
7231.2 0.2562400000
7231.7 0.2509100000
7232.2 0.2449900000
7232.7 0.2410200000
7233.2 0.2361300000
7233.7 0.2327300000
7234.2 0.2273100000
7234.7 0.2236200000
7235.2 0.2187000000
7235.7 0.2137100000
7236.2 0.2091900000
7236.7 0.2059400000
7237.2 0.2008600000
7237.7 0.1962300000
7238.1 0.1922400000
7238.6 0.1901300000
7239.1 0.1846200000
7239.6 0.1813900000
7240.1 0.1776700000
7240.6 0.1743400000
7241.1 0.1697800000
7241.6 0.1674200000
7242.1 0.1634800000
7242.6 0.1593400000
7243.1 0.1549600000
7243.6 0.1528800000
7244.0 0.1490500000
7244.5 0.1465800000
7245.0 0.1433200000
7245.5 0.1396000000
7246.0 0.1383700000
7246.5 0.1340300000
7247.0 0.1318500000
7247.5 0.1293300000
7248.0 0.1262700000
7248.4 0.1225900000
7248.9 0.1206100000
7249.4 0.1187400000
7249.9 0.1155300000
7250.4 0.1139200000
7250.9 0.1109900000
7251.4 0.1089400000
7251.9 0.1078900000
7252.4 0.1044700000
7252.8 0.1029300000
7253.3 0.1004800000
7253.8 0.0980800000
7254.3 0.0967500000
7254.8 0.0944400000
7255.3 0.0923600000
7255.8 0.0905800000
7256.2 0.0897900000
7256.7 0.0867000000
7257.2 0.0845600000
7257.7 0.0830600000
7258.2 0.0814200000
7258.7 0.0801400000
7259.2 0.0780500000
7259.6 0.0771000000
7260.1 0.0759000000
7260.6 0.0739800000
7261.1 0.0718600000
7261.6 0.0704800000
7262.1 0.0689900000
7262.5 0.0675800000
7263.0 0.0668900000
7263.5 0.0650100000
7264.0 0.0635600000
7264.5 0.0623200000
7265.0 0.0617400000
7265.4 0.0600400000
7265.9 0.0594200000
7266.4 0.0577600000
7266.9 0.0568600000
7267.4 0.0555400000
7267.9 0.0540900000
7268.3 0.0530900000
7268.8 0.0522600000
7269.3 0.0515900000
7269.8 0.0507800000
7270.3 0.0499900000
7270.7 0.0484000000
7271.2 0.0474200000
7271.7 0.0467700000
7272.2 0.0463000000
7272.7 0.0452100000
7273.1 0.0441200000
7273.6 0.0431800000
7274.1 0.0419700000
7274.6 0.0417300000
7275.1 0.0413200000
7275.5 0.0400300000
7276.0 0.0396400000
7276.5 0.0384100000
7277.0 0.0382000000
7277.5 0.0376300000
7277.9 0.0362800000
7278.4 0.0363600000
7278.9 0.0352100000
7279.4 0.0350000000
7279.8 0.0340900000
7280.3 0.0337700000
7280.8 0.0329900000
7281.3 0.0323800000
7281.8 0.0314400000
7282.2 0.0311200000
7282.7 0.0304800000
7283.2 0.0304600000
7283.7 0.0298900000
7284.1 0.0293200000
7284.6 0.0284500000
7285.1 0.0281100000
7285.6 0.0277500000
7286.0 0.0272600000
7286.5 0.0266000000
7287.0 0.0266900000
7287.5 0.0258700000
7287.9 0.0251800000
7288.4 0.0249800000
7288.9 0.0242600000
7289.4 0.0236800000
7289.8 0.0236400000
7290.3 0.0235100000
7290.8 0.0229600000
7291.3 0.0222500000
7291.7 0.0222100000
7292.2 0.0216700000
7292.7 0.0213000000
7293.2 0.0210800000
7293.6 0.0203500000
7294.1 0.0207400000
7294.6 0.0196600000
7295.0 0.0196600000
7295.5 0.0198700000
7296.0 0.0184900000
7296.5 0.0185400000
7296.9 0.0182500000
7297.4 0.0180000000
7297.9 0.0177400000
7298.3 0.0174800000
7298.8 0.0173400000
7299.3 0.0169300000
7299.7 0.0166400000
7300.2 0.0163600000
7300.7 0.0162200000
7301.2 0.0158400000
7301.6 0.0155500000
7302.1 0.0155400000
7302.6 0.0152700000
7303.0 0.0154200000
7303.5 0.0151800000
7304.0 0.0145300000
7304.4 0.0142400000
7304.9 0.0136900000
7305.4 0.0135800000
7305.8 0.0135300000
7306.3 0.0133400000
7306.8 0.0136000000
7307.2 0.0132400000
7307.7 0.0128300000
7308.2 0.0125400000
7308.6 0.0125500000
7309.1 0.0124300000
7309.6 0.0121600000
7310.0 0.0120900000
7310.5 0.0119700000
7311.0 0.0116100000
7311.4 0.0116000000
7311.9 0.0111900000
7312.4 0.0110800000
7312.8 0.0109700000
7313.3 0.0108000000
7313.8 0.0103400000
7314.2 0.0105400000
7314.7 0.0102500000
7315.2 0.0103400000
7315.6 0.0099500000
7316.1 0.0101700000
7316.6 0.0098200000
7317.0 0.0094200000
7317.5 0.0095100000
7317.9 0.0092600000
7318.4 0.0092200000
7318.9 0.0090000000
7319.3 0.0089100000
7319.8 0.0090000000
7320.3 0.0089000000
7320.7 0.0084100000
7321.2 0.0086400000
7321.6 0.0082800000
7322.1 0.0081200000
7322.6 0.0082100000
7323.0 0.0081200000
7323.5 0.0076000000
7324.0 0.0079700000
7324.4 0.0074700000
7324.9 0.0076300000
7325.3 0.0075300000
7325.8 0.0077300000
7326.3 0.0074300000
7326.7 0.0071100000
7327.2 0.0070700000
7327.6 0.0068400000
7328.1 0.0067600000
7328.5 0.0068100000
7329.0 0.0071100000
7329.5 0.0066100000
7329.9 0.0066700000
7330.4 0.0063900000
7330.8 0.0066600000
7331.3 0.0062200000
7331.8 0.0060700000
7332.2 0.0061100000
7332.7 0.0060300000
7333.1 0.0058500000
7333.6 0.0058600000
7334.0 0.0056900000
7334.5 0.0059200000
7335.0 0.0057400000
7335.4 0.0056400000
7335.9 0.0055100000
7336.3 0.0053300000
7336.8 0.0054500000
7337.2 0.0054600000
7337.7 0.0051900000
7338.1 0.0050000000
7338.6 0.0050600000
7339.1 0.0052000000
7339.5 0.0049000000
7340.0 0.0048900000
7340.4 0.0048300000
7340.9 0.0046900000
7341.3 0.0046300000
7341.8 0.0049200000
7342.2 0.0045700000
7342.7 0.0046200000
7343.1 0.0044500000
7343.6 0.0043000000
7344.0 0.0045100000
7344.5 0.0045700000
7345.0 0.0043700000
7345.4 0.0040500000
7345.9 0.0043900000
7346.3 0.0039800000
7346.8 0.0040700000
7347.2 0.0039900000
7347.7 0.0042900000
7348.1 0.0038400000
7348.6 0.0039000000
7349.0 0.0039100000
7349.5 0.0037000000
7349.9 0.0039300000
7350.4 0.0038700000
7350.8 0.0038500000
7351.3 0.0034100000
7351.7 0.0034900000
7352.2 0.0036900000
7352.6 0.0034000000
7353.1 0.0034100000
7353.5 0.0033700000
7354.0 0.0035400000
7354.4 0.0034300000
7354.9 0.0035000000
7355.3 0.0032000000
7355.8 0.0032200000
7356.2 0.0033900000
7356.6 0.0031300000
7357.1 0.0032200000
7357.5 0.0032100000
7358.0 0.0029300000
7358.4 0.0031100000
7358.9 0.0029600000
7359.3 0.0029400000
7359.8 0.0030700000
7360.2 0.0029700000
7360.7 0.0030400000
7361.1 0.0028400000
7361.6 0.0029300000
7362.0 0.0028600000
7362.4 0.0029200000
7362.9 0.0027000000
7363.3 0.0026100000
7363.8 0.0025900000
7364.2 0.0026700000
7364.7 0.0026500000
7365.1 0.0025300000
7365.6 0.0025100000
7366.0 0.0025700000
7366.4 0.0024200000
7366.9 0.0026700000
7367.3 0.0023500000
7367.8 0.0023900000
7368.2 0.0026800000
7368.7 0.0024900000
7369.1 0.0025200000
7369.5 0.0023000000
7370.0 0.0024900000
7370.4 0.0024500000
7370.9 0.0022900000
7371.3 0.0023300000
7371.8 0.0022400000
7372.2 0.0023300000
7372.6 0.0022500000
7373.1 0.0023000000
7373.5 0.0021700000
7374.0 0.0021600000
7374.4 0.0021800000
7374.8 0.0019300000
7375.3 0.0021400000
7375.7 0.0020500000
7376.2 0.0019900000
7376.6 0.0020700000
7377.0 0.0021100000
7377.5 0.0019700000
7377.9 0.0018600000
7378.3 0.0020200000
7378.8 0.0019600000
7379.2 0.0018800000
7379.7 0.0019100000
7380.1 0.0019300000
7380.5 0.0019300000
7381.0 0.0018000000
7381.4 0.0018500000
7381.8 0.0018200000
7382.3 0.0020000000
7382.7 0.0017400000
7383.2 0.0018100000
7383.6 0.0017900000
7384.0 0.0016400000
7384.5 0.0018800000
7384.9 0.0017300000
7385.3 0.0016700000
7385.8 0.0016700000
7386.2 0.0015900000
7386.6 0.0015900000
7387.1 0.0016500000
7387.5 0.0016000000
7387.9 0.0017000000
7388.4 0.0017100000
7388.8 0.0015800000
7389.2 0.0015100000
7389.7 0.0017300000
7390.1 0.0015100000
7390.5 0.0015500000
7391.0 0.0015400000
7391.4 0.0015500000
7391.8 0.0015300000
7392.3 0.0016000000
7392.7 0.0015200000
7393.1 0.0016200000
7393.6 0.0016400000
7394.0 0.0015100000
7394.4 0.0014500000
